 #
 #Single particle optical absorption spectrum
 # 
 # Omega   Probability
 # 
   0.00     0.3568
   0.01     0.3575
   0.02     0.3582
   0.03     0.3590
   0.04     0.3597
   0.05     0.3604
   0.06     0.3612
   0.07     0.3619
   0.08     0.3627
   0.09     0.3634
   0.10     0.3642
   0.11     0.3649
   0.12     0.3657
   0.13     0.3664
   0.14     0.3672
   0.15     0.3679
   0.16     0.3687
   0.17     0.3695
   0.18     0.3702
   0.19     0.3710
   0.20     0.3718
   0.21     0.3726
   0.22     0.3733
   0.23     0.3741
   0.24     0.3749
   0.25     0.3757
   0.26     0.3765
   0.27     0.3773
   0.28     0.3781
   0.29     0.3789
   0.30     0.3796
   0.31     0.3805
   0.32     0.3813
   0.33     0.3821
   0.34     0.3829
   0.35     0.3837
   0.36     0.3845
   0.37     0.3853
   0.38     0.3861
   0.39     0.3870
   0.40     0.3878
   0.41     0.3886
   0.42     0.3894
   0.43     0.3903
   0.44     0.3911
   0.45     0.3919
   0.46     0.3928
   0.47     0.3936
   0.48     0.3945
   0.49     0.3953
   0.50     0.3962
   0.51     0.3970
   0.52     0.3979
   0.53     0.3988
   0.54     0.3996
   0.55     0.4005
   0.56     0.4014
   0.57     0.4022
   0.58     0.4031
   0.59     0.4040
   0.60     0.4049
   0.61     0.4058
   0.62     0.4066
   0.63     0.4075
   0.64     0.4084
   0.65     0.4093
   0.66     0.4102
   0.67     0.4111
   0.68     0.4120
   0.69     0.4129
   0.70     0.4139
   0.71     0.4148
   0.72     0.4157
   0.73     0.4166
   0.74     0.4175
   0.75     0.4185
   0.76     0.4194
   0.77     0.4203
   0.78     0.4213
   0.79     0.4222
   0.80     0.4232
   0.81     0.4241
   0.82     0.4251
   0.83     0.4260
   0.84     0.4270
   0.85     0.4279
   0.86     0.4289
   0.87     0.4299
   0.88     0.4308
   0.89     0.4318
   0.90     0.4328
   0.91     0.4338
   0.92     0.4348
   0.93     0.4357
   0.94     0.4367
   0.95     0.4377
   0.96     0.4387
   0.97     0.4397
   0.98     0.4407
   0.99     0.4417
   1.00     0.4428
   1.01     0.4438
   1.02     0.4448
   1.03     0.4458
   1.04     0.4469
   1.05     0.4479
   1.06     0.4489
   1.07     0.4500
   1.08     0.4510
   1.09     0.4520
   1.10     0.4531
   1.11     0.4541
   1.12     0.4552
   1.13     0.4563
   1.14     0.4573
   1.15     0.4584
   1.16     0.4595
   1.17     0.4606
   1.18     0.4616
   1.19     0.4627
   1.20     0.4638
   1.21     0.4649
   1.22     0.4660
   1.23     0.4671
   1.24     0.4682
   1.25     0.4693
   1.26     0.4704
   1.27     0.4715
   1.28     0.4727
   1.29     0.4738
   1.30     0.4749
   1.31     0.4760
   1.32     0.4772
   1.33     0.4783
   1.34     0.4795
   1.35     0.4806
   1.36     0.4818
   1.37     0.4829
   1.38     0.4841
   1.39     0.4853
   1.40     0.4864
   1.41     0.4876
   1.42     0.4888
   1.43     0.4900
   1.44     0.4912
   1.45     0.4924
   1.46     0.4936
   1.47     0.4948
   1.48     0.4960
   1.49     0.4972
   1.50     0.4984
   1.51     0.4996
   1.52     0.5009
   1.53     0.5021
   1.54     0.5033
   1.55     0.5046
   1.56     0.5058
   1.57     0.5071
   1.58     0.5083
   1.59     0.5096
   1.60     0.5109
   1.61     0.5121
   1.62     0.5134
   1.63     0.5147
   1.64     0.5160
   1.65     0.5173
   1.66     0.5185
   1.67     0.5198
   1.68     0.5212
   1.69     0.5225
   1.70     0.5238
   1.71     0.5251
   1.72     0.5264
   1.73     0.5278
   1.74     0.5291
   1.75     0.5304
   1.76     0.5318
   1.77     0.5331
   1.78     0.5345
   1.79     0.5359
   1.80     0.5372
   1.81     0.5386
   1.82     0.5400
   1.83     0.5414
   1.84     0.5428
   1.85     0.5442
   1.86     0.5456
   1.87     0.5470
   1.88     0.5484
   1.89     0.5498
   1.90     0.5512
   1.91     0.5526
   1.92     0.5541
   1.93     0.5555
   1.94     0.5570
   1.95     0.5584
   1.96     0.5599
   1.97     0.5614
   1.98     0.5628
   1.99     0.5643
   2.00     0.5658
   2.01     0.5673
   2.02     0.5688
   2.03     0.5703
   2.04     0.5718
   2.05     0.5733
   2.06     0.5748
   2.07     0.5763
   2.08     0.5779
   2.09     0.5794
   2.10     0.5810
   2.11     0.5825
   2.12     0.5841
   2.13     0.5856
   2.14     0.5872
   2.15     0.5888
   2.16     0.5904
   2.17     0.5920
   2.18     0.5936
   2.19     0.5952
   2.20     0.5968
   2.21     0.5984
   2.22     0.6000
   2.23     0.6017
   2.24     0.6033
   2.25     0.6050
   2.26     0.6066
   2.27     0.6083
   2.28     0.6100
   2.29     0.6116
   2.30     0.6133
   2.31     0.6150
   2.32     0.6167
   2.33     0.6184
   2.34     0.6201
   2.35     0.6218
   2.36     0.6236
   2.37     0.6253
   2.38     0.6271
   2.39     0.6288
   2.40     0.6306
   2.41     0.6323
   2.42     0.6341
   2.43     0.6359
   2.44     0.6377
   2.45     0.6395
   2.46     0.6413
   2.47     0.6431
   2.48     0.6449
   2.49     0.6467
   2.50     0.6486
   2.51     0.6504
   2.52     0.6523
   2.53     0.6541
   2.54     0.6560
   2.55     0.6579
   2.56     0.6598
   2.57     0.6617
   2.58     0.6636
   2.59     0.6655
   2.60     0.6674
   2.61     0.6694
   2.62     0.6713
   2.63     0.6733
   2.64     0.6752
   2.65     0.6772
   2.66     0.6792
   2.67     0.6811
   2.68     0.6831
   2.69     0.6851
   2.70     0.6872
   2.71     0.6892
   2.72     0.6912
   2.73     0.6932
   2.74     0.6953
   2.75     0.6974
   2.76     0.6994
   2.77     0.7015
   2.78     0.7036
   2.79     0.7057
   2.80     0.7078
   2.81     0.7099
   2.82     0.7121
   2.83     0.7142
   2.84     0.7163
   2.85     0.7185
   2.86     0.7207
   2.87     0.7229
   2.88     0.7251
   2.89     0.7273
   2.90     0.7295
   2.91     0.7317
   2.92     0.7339
   2.93     0.7362
   2.94     0.7384
   2.95     0.7407
   2.96     0.7430
   2.97     0.7453
   2.98     0.7476
   2.99     0.7499
   3.00     0.7522
   3.01     0.7545
   3.02     0.7569
   3.03     0.7592
   3.04     0.7616
   3.05     0.7640
   3.06     0.7664
   3.07     0.7688
   3.08     0.7712
   3.09     0.7736
   3.10     0.7761
   3.11     0.7785
   3.12     0.7810
   3.13     0.7835
   3.14     0.7859
   3.15     0.7884
   3.16     0.7910
   3.17     0.7935
   3.18     0.7960
   3.19     0.7986
   3.20     0.8012
   3.21     0.8037
   3.22     0.8063
   3.23     0.8089
   3.24     0.8116
   3.25     0.8142
   3.26     0.8168
   3.27     0.8195
   3.28     0.8222
   3.29     0.8249
   3.30     0.8276
   3.31     0.8303
   3.32     0.8330
   3.33     0.8358
   3.34     0.8385
   3.35     0.8413
   3.36     0.8441
   3.37     0.8469
   3.38     0.8497
   3.39     0.8525
   3.40     0.8554
   3.41     0.8582
   3.42     0.8611
   3.43     0.8640
   3.44     0.8669
   3.45     0.8699
   3.46     0.8728
   3.47     0.8758
   3.48     0.8787
   3.49     0.8817
   3.50     0.8847
   3.51     0.8878
   3.52     0.8908
   3.53     0.8938
   3.54     0.8969
   3.55     0.9000
   3.56     0.9031
   3.57     0.9062
   3.58     0.9094
   3.59     0.9125
   3.60     0.9157
   3.61     0.9189
   3.62     0.9221
   3.63     0.9254
   3.64     0.9286
   3.65     0.9319
   3.66     0.9352
   3.67     0.9385
   3.68     0.9418
   3.69     0.9451
   3.70     0.9485
   3.71     0.9519
   3.72     0.9553
   3.73     0.9587
   3.74     0.9621
   3.75     0.9656
   3.76     0.9691
   3.77     0.9726
   3.78     0.9761
   3.79     0.9796
   3.80     0.9832
   3.81     0.9867
   3.82     0.9904
   3.83     0.9940
   3.84     0.9976
   3.85     1.0013
   3.86     1.0050
   3.87     1.0087
   3.88     1.0124
   3.89     1.0162
   3.90     1.0199
   3.91     1.0237
   3.92     1.0276
   3.93     1.0314
   3.94     1.0353
   3.95     1.0392
   3.96     1.0431
   3.97     1.0470
   3.98     1.0510
   3.99     1.0550
   4.00     1.0590
   4.01     1.0630
   4.02     1.0671
   4.03     1.0712
   4.04     1.0753
   4.05     1.0794
   4.06     1.0836
   4.07     1.0878
   4.08     1.0920
   4.09     1.0962
   4.10     1.1005
   4.11     1.1048
   4.12     1.1091
   4.13     1.1135
   4.14     1.1178
   4.15     1.1222
   4.16     1.1267
   4.17     1.1311
   4.18     1.1356
   4.19     1.1402
   4.20     1.1447
   4.21     1.1493
   4.22     1.1539
   4.23     1.1585
   4.24     1.1632
   4.25     1.1679
   4.26     1.1726
   4.27     1.1774
   4.28     1.1822
   4.29     1.1870
   4.30     1.1919
   4.31     1.1968
   4.32     1.2017
   4.33     1.2066
   4.34     1.2116
   4.35     1.2167
   4.36     1.2217
   4.37     1.2268
   4.38     1.2319
   4.39     1.2371
   4.40     1.2423
   4.41     1.2475
   4.42     1.2528
   4.43     1.2581
   4.44     1.2634
   4.45     1.2688
   4.46     1.2742
   4.47     1.2797
   4.48     1.2852
   4.49     1.2907
   4.50     1.2963
   4.51     1.3019
   4.52     1.3075
   4.53     1.3132
   4.54     1.3190
   4.55     1.3247
   4.56     1.3305
   4.57     1.3364
   4.58     1.3423
   4.59     1.3482
   4.60     1.3542
   4.61     1.3602
   4.62     1.3663
   4.63     1.3724
   4.64     1.3786
   4.65     1.3848
   4.66     1.3911
   4.67     1.3974
   4.68     1.4037
   4.69     1.4101
   4.70     1.4165
   4.71     1.4230
   4.72     1.4296
   4.73     1.4361
   4.74     1.4428
   4.75     1.4495
   4.76     1.4562
   4.77     1.4630
   4.78     1.4699
   4.79     1.4768
   4.80     1.4837
   4.81     1.4907
   4.82     1.4978
   4.83     1.5049
   4.84     1.5121
   4.85     1.5193
   4.86     1.5266
   4.87     1.5339
   4.88     1.5413
   4.89     1.5488
   4.90     1.5563
   4.91     1.5639
   4.92     1.5715
   4.93     1.5792
   4.94     1.5870
   4.95     1.5948
   4.96     1.6027
   4.97     1.6107
   4.98     1.6187
   4.99     1.6268
   5.00     1.6350
   5.01     1.6432
   5.02     1.6515
   5.03     1.6599
   5.04     1.6683
   5.05     1.6768
   5.06     1.6854
   5.07     1.6941
   5.08     1.7028
   5.09     1.7116
   5.10     1.7205
   5.11     1.7294
   5.12     1.7385
   5.13     1.7476
   5.14     1.7568
   5.15     1.7661
   5.16     1.7754
   5.17     1.7849
   5.18     1.7944
   5.19     1.8040
   5.20     1.8137
   5.21     1.8235
   5.22     1.8334
   5.23     1.8434
   5.24     1.8534
   5.25     1.8636
   5.26     1.8738
   5.27     1.8841
   5.28     1.8946
   5.29     1.9051
   5.30     1.9157
   5.31     1.9265
   5.32     1.9373
   5.33     1.9482
   5.34     1.9593
   5.35     1.9704
   5.36     1.9817
   5.37     1.9930
   5.38     2.0045
   5.39     2.0161
   5.40     2.0278
   5.41     2.0396
   5.42     2.0515
   5.43     2.0635
   5.44     2.0757
   5.45     2.0880
   5.46     2.1004
   5.47     2.1129
   5.48     2.1256
   5.49     2.1384
   5.50     2.1513
   5.51     2.1644
   5.52     2.1776
   5.53     2.1909
   5.54     2.2043
   5.55     2.2179
   5.56     2.2317
   5.57     2.2456
   5.58     2.2596
   5.59     2.2738
   5.60     2.2881
   5.61     2.3026
   5.62     2.3173
   5.63     2.3321
   5.64     2.3471
   5.65     2.3622
   5.66     2.3775
   5.67     2.3930
   5.68     2.4086
   5.69     2.4245
   5.70     2.4405
   5.71     2.4566
   5.72     2.4730
   5.73     2.4896
   5.74     2.5063
   5.75     2.5232
   5.76     2.5404
   5.77     2.5577
   5.78     2.5752
   5.79     2.5930
   5.80     2.6109
   5.81     2.6291
   5.82     2.6475
   5.83     2.6661
   5.84     2.6849
   5.85     2.7040
   5.86     2.7233
   5.87     2.7428
   5.88     2.7626
   5.89     2.7826
   5.90     2.8029
   5.91     2.8234
   5.92     2.8442
   5.93     2.8652
   5.94     2.8866
   5.95     2.9082
   5.96     2.9300
   5.97     2.9522
   5.98     2.9747
   5.99     2.9974
   6.00     3.0204
   6.01     3.0438
   6.02     3.0675
   6.03     3.0915
   6.04     3.1158
   6.05     3.1404
   6.06     3.1654
   6.07     3.1908
   6.08     3.2165
   6.09     3.2425
   6.10     3.2689
   6.11     3.2957
   6.12     3.3229
   6.13     3.3505
   6.14     3.3784
   6.15     3.4068
   6.16     3.4356
   6.17     3.4648
   6.18     3.4945
   6.19     3.5246
   6.20     3.5551
   6.21     3.5861
   6.22     3.6176
   6.23     3.6496
   6.24     3.6821
   6.25     3.7151
   6.26     3.7486
   6.27     3.7826
   6.28     3.8171
   6.29     3.8523
   6.30     3.8880
   6.31     3.9242
   6.32     3.9611
   6.33     3.9986
   6.34     4.0367
   6.35     4.0754
   6.36     4.1148
   6.37     4.1549
   6.38     4.1956
   6.39     4.2371
   6.40     4.2793
   6.41     4.3222
   6.42     4.3659
   6.43     4.4104
   6.44     4.4556
   6.45     4.5017
   6.46     4.5486
   6.47     4.5964
   6.48     4.6451
   6.49     4.6947
   6.50     4.7452
   6.51     4.7967
   6.52     4.8492
   6.53     4.9027
   6.54     4.9573
   6.55     5.0129
   6.56     5.0696
   6.57     5.1275
   6.58     5.1865
   6.59     5.2468
   6.60     5.3083
   6.61     5.3710
   6.62     5.4351
   6.63     5.5005
   6.64     5.5674
   6.65     5.6357
   6.66     5.7054
   6.67     5.7767
   6.68     5.8496
   6.69     5.9242
   6.70     6.0004
   6.71     6.0783
   6.72     6.1581
   6.73     6.2397
   6.74     6.3232
   6.75     6.4087
   6.76     6.4963
   6.77     6.5860
   6.78     6.6779
   6.79     6.7721
   6.80     6.8687
   6.81     6.9677
   6.82     7.0692
   6.83     7.1734
   6.84     7.2803
   6.85     7.3900
   6.86     7.5027
   6.87     7.6184
   6.88     7.7373
   6.89     7.8595
   6.90     7.9851
   6.91     8.1143
   6.92     8.2472
   6.93     8.3840
   6.94     8.5248
   6.95     8.6697
   6.96     8.8191
   6.97     8.9730
   6.98     9.1317
   6.99     9.2953
   7.00     9.4642
   7.01     9.6384
   7.02     9.8184
   7.03    10.0043
   7.04    10.1964
   7.05    10.3950
   7.06    10.6004
   7.07    10.8131
   7.08    11.0332
   7.09    11.2612
   7.10    11.4976
   7.11    11.7427
   7.12    11.9969
   7.13    12.2608
   7.14    12.5350
   7.15    12.8198
   7.16    13.1161
   7.17    13.4243
   7.18    13.7451
   7.19    14.0794
   7.20    14.4279
   7.21    14.7914
   7.22    15.1709
   7.23    15.5673
   7.24    15.9817
   7.25    16.4153
   7.26    16.8692
   7.27    17.3448
   7.28    17.8437
   7.29    18.3673
   7.30    18.9174
   7.31    19.4958
   7.32    20.1046
   7.33    20.7460
   7.34    21.4224
   7.35    22.1365
   7.36    22.8912
   7.37    23.6897
   7.38    24.5354
   7.39    25.4324
   7.40    26.3848
   7.41    27.3973
   7.42    28.4753
   7.43    29.6245
   7.44    30.8513
   7.45    32.1630
   7.46    33.5676
   7.47    35.0740
   7.48    36.6923
   7.49    38.4338
   7.50    40.3112
   7.51    42.3389
   7.52    44.5331
   7.53    46.9121
   7.54    49.4970
   7.55    52.3113
   7.56    55.3823
   7.57    58.7411
   7.58    62.4230
   7.59    66.4690
   7.60    70.9258
   7.61    75.8475
   7.62    81.2963
   7.63    87.3437
   7.64    94.0721
   7.65   101.5763
   7.66   109.9646
   7.67   119.3605
   7.68   129.9031
   7.69   141.7470
   7.70   155.0608
   7.71   170.0218
   7.72   186.8065
   7.73   205.5745
   7.74   226.4409
   7.75   249.4353
   7.76   274.4434
   7.77   301.1311
   7.78   328.8582
   7.79   356.6001
   7.80   382.9156
   7.81   406.0088
   7.82   423.9291
   7.83   434.9079
   7.84   437.7544
   7.85   432.1650
   7.86   418.8075
   7.87   399.1391
   7.88   375.0450
   7.89   348.4509
   7.90   321.0338
   7.91   294.0779
   7.92   268.4547
   7.93   244.6786
   7.94   222.9910
   7.95   203.4443
   7.96   185.9719
   7.97   170.4389
   7.98   156.6784
   7.99   144.5135
   8.00   133.7712
   8.01   124.2897
   8.02   115.9223
   8.03   108.5379
   8.04   102.0214
   8.05    96.2723
   8.06    91.2036
   8.07    86.7403
   8.08    82.8177
   8.09    79.3808
   8.10    76.3825
   8.11    73.7828
   8.12    71.5481
   8.13    69.6502
   8.14    68.0660
   8.15    66.7764
   8.16    65.7668
   8.17    65.0259
   8.18    64.5461
   8.19    64.3230
   8.20    64.3556
   8.21    64.6458
   8.22    65.1992
   8.23    66.0245
   8.24    67.1343
   8.25    68.5451
   8.26    70.2775
   8.27    72.3573
   8.28    74.8155
   8.29    77.6891
   8.30    81.0221
   8.31    84.8663
   8.32    89.2822
   8.33    94.3401
   8.34   100.1210
   8.35   106.7170
   8.36   114.2320
   8.37   122.7805
   8.38   132.4849
   8.39   143.4703
   8.40   155.8545
   8.41   169.7320
   8.42   185.1478
   8.43   202.0610
   8.44   220.2947
   8.45   239.4758
   8.46   258.9753
   8.47   277.8695
   8.48   294.9568
   8.49   308.8623
   8.50   318.2470
   8.51   322.0847
   8.52   319.9171
   8.53   311.9794
   8.54   299.1344
   8.55   282.6495
   8.56   263.9143
   8.57   244.2029
   8.58   224.5340
   8.59   205.6297
   8.60   187.9391
   8.61   171.6949
   8.62   156.9745
   8.63   143.7542
   8.64   131.9502
   8.65   121.4477
   8.66   112.1205
   8.67   103.8424
   8.68    96.4942
   8.69    89.9664
   8.70    84.1610
   8.71    78.9913
   8.72    74.3811
   8.73    70.2637
   8.74    66.5811
   8.75    63.2830
   8.76    60.3256
   8.77    57.6710
   8.78    55.2863
   8.79    53.1429
   8.80    51.2158
   8.81    49.4836
   8.82    47.9275
   8.83    46.5309
   8.84    45.2798
   8.85    44.1616
   8.86    43.1655
   8.87    42.2821
   8.88    41.5030
   8.89    40.8212
   8.90    40.2304
   8.91    39.7254
   8.92    39.3015
   8.93    38.9548
   8.94    38.6822
   8.95    38.4808
   8.96    38.3485
   8.97    38.2838
   8.98    38.2854
   8.99    38.3526
   9.00    38.4852
   9.01    38.6833
   9.02    38.9474
   9.03    39.2787
   9.04    39.6786
   9.05    40.1491
   9.06    40.6926
   9.07    41.3122
   9.08    42.0113
   9.09    42.7942
   9.10    43.6655
   9.11    44.6310
   9.12    45.6971
   9.13    46.8709
   9.14    48.1608
   9.15    49.5764
   9.16    51.1285
   9.17    52.8294
   9.18    54.6930
   9.19    56.7355
   9.20    58.9750
   9.21    61.4324
   9.22    64.1315
   9.23    67.0997
   9.24    70.3683
   9.25    73.9731
   9.26    77.9556
   9.27    82.3630
   9.28    87.2500
   9.29    92.6791
   9.30    98.7216
   9.31   105.4592
   9.32   112.9840
   9.33   121.3990
   9.34   130.8179
   9.35   141.3626
   9.36   153.1589
   9.37   166.3291
   9.38   180.9778
   9.39   197.1730
   9.40   214.9170
   9.41   234.1108
   9.42   254.5145
   9.43   275.7153
   9.44   297.1187
   9.45   317.9859
   9.46   337.5280
   9.47   355.0434
   9.48   370.0495
   9.49   382.3424
   9.50   391.9397
   9.51   398.9237
   9.52   403.2624
   9.53   404.7036
   9.54   402.8072
   9.55   397.1132
   9.56   387.3725
   9.57   373.7311
   9.58   356.7790
   9.59   337.4484
   9.60   316.8209
   9.61   295.9329
   9.62   275.6415
   9.63   256.5694
   9.64   239.1115
   9.65   223.4753
   9.66   209.7327
   9.67   197.8673
   9.68   187.8124
   9.69   179.4788
   9.70   172.7730
   9.71   167.6096
   9.72   163.9179
   9.73   161.6462
   9.74   160.7630
   9.75   161.2573
   9.76   163.1375
   9.77   166.4277
   9.78   171.1632
   9.79   177.3811
   9.80   185.1068
   9.81   194.3329
   9.82   204.9892
   9.83   216.9032
   9.84   229.7528
   9.85   243.0203
   9.86   255.9640
   9.87   267.6338
   9.88   276.9559
   9.89   282.8975
   9.90   284.6794
   9.91   281.9678
   9.92   274.9615
   9.93   264.3342
   9.94   251.0589
   9.95   236.1933
   9.96   220.7016
   9.97   205.3524
   9.98   190.6891
   9.99   177.0497
  10.00   164.6094
  10.01   153.4270
  10.02   143.4856
  10.03   134.7237
  10.04   127.0568
  10.05   120.3926
  10.06   114.6395
  10.07   109.7116
  10.08   105.5319
  10.09   102.0333
  10.10    99.1586
  10.11    96.8605
  10.12    95.1012
  10.13    93.8517
  10.14    93.0915
  10.15    92.8083
  10.16    92.9975
  10.17    93.6623
  10.18    94.8139
  10.19    96.4713
  10.20    98.6621
  10.21   101.4225
  10.22   104.7979
  10.23   108.8437
  10.24   113.6246
  10.25   119.2150
  10.26   125.6974
  10.27   133.1596
  10.28   141.6890
  10.29   151.3635
  10.30   162.2367
  10.31   174.3150
  10.32   187.5268
  10.33   201.6826
  10.34   216.4310
  10.35   231.2229
  10.36   245.3016
  10.37   257.7468
  10.38   267.5894
  10.39   273.9908
  10.40   276.4409
  10.41   274.8979
  10.42   269.8057
  10.43   261.9832
  10.44   252.4347
  10.45   242.1608
  10.46   232.0242
  10.47   222.6862
